 PsiN a-r(cm) p(MPa) Te(keV) n(13cm-3) pp(MPa/W) j.B/B0 beta% betan  nu*
   rho  width/a   q       s     alpha   al_cyl   eps  betap rhot_dt Ti(kev)
0.9492   6.975 0.11582  4.8839  7.4004 -0.1162  41.130 0.7334 0.7700 0.0444
  0.9266 0.0279  6.0808  2.1358  5.0089   24.49  0.3068 0.4665 1.4270  4.8839
0.9746   3.421 0.04432  2.4920  5.5500 -0.1785  56.409 0.2806 0.2947 0.1171
  0.9628 0.0137  6.2163  1.3856  7.7959   41.39  0.3136 0.1673 0.9869  2.4920
0.9238  10.637 0.14550  5.7072  7.9562 -0.0388  14.498 0.9214 0.9674 0.0361
  0.8914 0.0425  5.3831  4.8282  1.4877    6.51  0.2999 0.5734 1.5258  5.7072
0.9656   4.665 0.07283  3.5634  6.3786 -0.1927  64.593 0.4612 0.4843 0.0684
  0.9500 0.0187  6.1801  0.0526  8.3995   43.37  0.3112 0.2825 1.1962  3.5634
0.9302   9.709 0.14076  5.5726  7.8829 -0.0493  18.154 0.8914 0.9359 0.0373
  0.9000 0.0388  5.5877  4.5947  1.9620    8.89  0.3016 0.5611 1.5164  5.5726
1.0000   0.000 0.00119  0.1000  3.7000 -0.0379   1.285 0.0075 0.007938.4778
  1.0000 0.0000  7.3030 12.6903  1.9014   12.38  0.3205 0.0046 0.1998  0.1000
0.9950   0.669 0.00505  0.4010  3.9328 -0.0564   8.300 0.0320 0.0336 2.9326
  0.9922 0.0027  6.9110  7.8215  2.6965   16.49  0.3192 0.0192 0.3968  0.4010
0.9900   1.340 0.01074  0.7916  4.2349 -0.0818  18.018 0.0680 0.0714 0.8225
  0.9848 0.0054  6.6334  6.1858  3.7723   21.99  0.3178 0.0403 0.5544  0.7916
0.9850   2.012 0.01881  1.2741  4.6080 -0.1135  30.457 0.1191 0.1251 0.3545
  0.9775 0.0080  6.4327  4.5117  5.0943   28.57  0.3164 0.0702 0.7016  1.2741
0.9800   2.688 0.02965  1.8352  5.0420 -0.1475  43.797 0.1878 0.1971 0.1910
  0.9704 0.0108  6.2981  2.9039  6.5069   35.41  0.3151 0.1109 0.8429  1.8352
0.9750   3.368 0.04317  2.4439  5.5128 -0.1767  55.636 0.2734 0.2870 0.1207
  0.9633 0.0135  6.2203  1.4824  7.7199   41.05  0.3137 0.1628 0.9768  2.4439
0.9700   4.054 0.05863  3.0562  5.9864 -0.1930  63.123 0.3712 0.3898 0.0858
  0.9562 0.0162  6.1869  0.4618  8.4039   43.93  0.3124 0.2242 1.0999  3.0562
0.9650   4.747 0.07471  3.6272  6.4280 -0.1917  64.414 0.4731 0.4968 0.0667
  0.9492 0.0190  6.1799  0.0375  8.3548   43.08  0.3110 0.2904 1.2080  3.6272
0.9600   5.447 0.09000  4.1232  6.8116 -0.1745  59.827 0.5699 0.5984 0.0557
  0.9420 0.0218  6.1759  0.2914  7.6139   38.85  0.3097 0.3552 1.2980  4.1232
0.9550   6.153 0.10339  4.5286  7.1250 -0.1468  51.148 0.6547 0.6875 0.0490
  0.9349 0.0246  6.1513  1.0670  6.3917   32.02  0.3083 0.4131 1.3686  4.5286
0.9500   6.864 0.11431  4.8418  7.3679 -0.1199  42.375 0.7238 0.7600 0.0449
  0.9277 0.0275  6.0930  1.9943  5.1797   25.38  0.3070 0.4601 1.4204  4.8418
0.9450   7.580 0.12332  5.0920  7.5578 -0.0974  34.755 0.7809 0.8199 0.0420
  0.9205 0.0303  6.0008  2.8667  4.1463   20.15  0.3056 0.4978 1.4587  5.0920
0.9400   8.299 0.13062  5.2925  7.7020 -0.0773  27.847 0.8271 0.8685 0.0400
  0.9135 0.0332  5.8794  3.6339  3.2286   15.38  0.3043 0.5266 1.4862  5.2925
0.9350   9.021 0.13637  5.4506  7.8078 -0.0608  22.148 0.8635 0.9067 0.0385
  0.9065 0.0361  5.7359  4.2286  2.4807   11.46  0.3029 0.5472 1.5048  5.4506
0.9300   9.744 0.14096  5.5782  7.8862 -0.0488  17.984 0.8926 0.9373 0.0373
  0.8997 0.0390  5.5800  4.6083  1.9400    8.78  0.3016 0.5617 1.5169  5.5782
0.9250  10.468 0.14472  5.6846  7.9447 -0.0404  15.037 0.9164 0.9622 0.0363
  0.8930 0.0419  5.4202  4.8032  1.5580    6.86  0.3002 0.5715 1.5245  5.6846
0.9200  11.193 0.14790  5.7769  7.9894 -0.0346  13.060 0.9365 0.9833 0.0355
  0.8864 0.0448  5.2626  4.8681  1.2979    5.57  0.2989 0.5784 1.5293  5.7769
0.9150  11.919 0.15069  5.8602  8.0246 -0.0309  11.798 0.9542 1.0019 0.0348
  0.8800 0.0477  5.1106  4.8461  1.1242    4.71  0.2975 0.5832 1.5322  5.8602
0.9100  12.645 0.15324  5.9381  8.0533 -0.0285  11.048 0.9703 1.0189 0.0342
  0.8737 0.0506  4.9660  4.7707  1.0099    4.13  0.2962 0.5868 1.5342  5.9381
0.9050  13.372 0.15564  6.0131  8.0775 -0.0272  10.661 0.9856 1.0348 0.0335
  0.8676 0.0535  4.8296  4.6658  0.9357    3.74  0.2949 0.5896 1.5357  6.0131
0.9000  14.098 0.15797  6.0869  8.0988 -0.0265  10.524 1.0003 1.0503 0.0329
  0.8616 0.0564  4.7014  4.5464  0.8880    3.46  0.2935 0.5922 1.5369  6.0869
0.8950  14.825 0.16026  6.1606  8.1182 -0.0263  10.558 1.0148 1.0656 0.0323
  0.8557 0.0593  4.5809  4.4219  0.8576    3.27  0.2922 0.5946 1.5382  6.1606
0.8900  15.551 0.16256  6.2350  8.1362 -0.0264  10.710 1.0293 1.0808 0.0317
  0.8499 0.0622  4.4677  4.2976  0.8386    3.12  0.2909 0.5970 1.5397  6.2350
0.8850  16.278 0.16487  6.3103  8.1534 -0.0267  10.940 1.0440 1.0962 0.0311
  0.8442 0.0651  4.3612  4.1768  0.8267    3.01  0.2896 0.5996 1.5414  6.3103
0.8800  17.005 0.16721  6.3871  8.1700 -0.0271  11.224 1.0588 1.1118 0.0306
  0.8386 0.0680  4.2609  4.0611  0.8194    2.92  0.2883 0.6024 1.5434  6.3871
0.8750  17.732 0.16960  6.4654  8.1863 -0.0276  11.544 1.0740 1.1277 0.0300
  0.8331 0.0709  4.1662  3.9511  0.8150    2.84  0.2869 0.6054 1.5456  6.4654
0.8700  18.459 0.17203  6.5453  8.2024 -0.0281  11.888 1.0894 1.1438 0.0294
  0.8277 0.0738  4.0766  3.8471  0.8122    2.77  0.2856 0.6086 1.5482  6.5453
0.8650  19.187 0.17452  6.6268  8.2184 -0.0287  12.248 1.1051 1.1603 0.0289
  0.8224 0.0767  3.9916  3.7489  0.8104    2.71  0.2843 0.6120 1.5511  6.6268
0.8600  19.914 0.17705  6.7100  8.2343 -0.0293  12.620 1.1211 1.1772 0.0283
  0.8171 0.0797  3.9109  3.6563  0.8091    2.66  0.2830 0.6157 1.5542  6.7100
0.8550  20.642 0.17964  6.7948  8.2503 -0.0299  12.998 1.1375 1.1944 0.0277
  0.8119 0.0826  3.8341  3.5688  0.8081    2.60  0.2817 0.6196 1.5576  6.7948
0.8500  21.370 0.18227  6.8813  8.2662 -0.0305  13.382 1.1542 1.2119 0.0272
  0.8068 0.0855  3.7609  3.4861  0.8071    2.55  0.2804 0.6237 1.5613  6.8813
0.8450  22.098 0.18496  6.9693  8.2821 -0.0310  13.770 1.1712 1.2298 0.0267
  0.8017 0.0884  3.6910  3.4078  0.8060    2.51  0.2791 0.6281 1.5652  6.9693
0.8400  22.827 0.18770  7.0589  8.2981 -0.0316  14.161 1.1886 1.2480 0.0261
  0.7967 0.0913  3.6241  3.3335  0.8048    2.46  0.2778 0.6326 1.5694  7.0589
0.8350  23.556 0.19049  7.1500  8.3142 -0.0322  14.555 1.2062 1.2665 0.0256
  0.7918 0.0942  3.5601  3.2630  0.8035    2.42  0.2766 0.6374 1.5737  7.1500
0.8300  24.285 0.19333  7.2425  8.3303 -0.0327  14.950 1.2242 1.2854 0.0251
  0.7869 0.0971  3.4987  3.1958  0.8019    2.37  0.2753 0.6423 1.5783  7.2425
0.8250  25.014 0.19622  7.3365  8.3464 -0.0333  15.348 1.2425 1.3046 0.0246
  0.7821 0.1001  3.4397  3.1318  0.8002    2.33  0.2740 0.6475 1.5831  7.3365
0.8200  25.744 0.19915  7.4318  8.3626 -0.0338  15.748 1.2611 1.3241 0.0241
  0.7773 0.1030  3.3830  3.0706  0.7984    2.29  0.2727 0.6528 1.5881  7.4318
0.8150  26.475 0.20213  7.5285  8.3788 -0.0344  16.149 1.2800 1.3440 0.0236
  0.7726 0.1059  3.3284  3.0120  0.7963    2.25  0.2714 0.6583 1.5932  7.5285
0.8100  27.206 0.20516  7.6265  8.3951 -0.0349  16.553 1.2991 1.3641 0.0232
  0.7679 0.1088  3.2757  2.9559  0.7941    2.21  0.2702 0.6640 1.5985  7.6265
0.8050  27.937 0.20824  7.7258  8.4114 -0.0354  16.960 1.3186 1.3845 0.0227
  0.7633 0.1117  3.2250  2.9019  0.7918    2.17  0.2689 0.6698 1.6039  7.7258
0.8000  28.669 0.21136  7.8263  8.4278 -0.0359  17.368 1.3384 1.4053 0.0223
  0.7587 0.1147  3.1760  2.8501  0.7893    2.14  0.2676 0.6758 1.6095  7.8263
0.7950  29.401 0.21452  7.9280  8.4442 -0.0364  17.780 1.3584 1.4263 0.0218
  0.7541 0.1176  3.1286  2.8002  0.7867    2.10  0.2663 0.6820 1.6153  7.9280
0.7900  30.134 0.21773  8.0308  8.4607 -0.0369  18.193 1.3787 1.4476 0.0214
  0.7496 0.1205  3.0828  2.7520  0.7840    2.07  0.2651 0.6883 1.6211  8.0308
0.7850  30.867 0.22098  8.1348  8.4772 -0.0374  18.610 1.3993 1.4692 0.0210
  0.7451 0.1235  3.0385  2.7055  0.7811    2.03  0.2638 0.6947 1.6272  8.1348
0.7800  31.601 0.22427  8.2400  8.4937 -0.0379  19.029 1.4201 1.4911 0.0206
  0.7407 0.1264  2.9956  2.6606  0.7782    2.00  0.2626 0.7014 1.6333  8.2400
0.7750  32.335 0.22760  8.3462  8.5103 -0.0384  19.452 1.4412 1.5133 0.0202
  0.7363 0.1293  2.9539  2.6171  0.7751    1.97  0.2613 0.7081 1.6395  8.3462
0.7700  33.070 0.23098  8.4535  8.5269 -0.0388  19.877 1.4626 1.5358 0.0198
  0.7320 0.1323  2.9136  2.5749  0.7720    1.94  0.2600 0.7150 1.6459  8.4535
0.7650  33.806 0.23440  8.5618  8.5436 -0.0393  20.305 1.4843 1.5585 0.0194
  0.7276 0.1352  2.8744  2.5340  0.7688    1.91  0.2588 0.7221 1.6524  8.5618
0.7600  34.542 0.23785  8.6711  8.5602 -0.0398  20.737 1.5061 1.5814 0.0190
  0.7233 0.1382  2.8363  2.4943  0.7656    1.88  0.2575 0.7292 1.6590  8.6711
0.7550  35.279 0.24135  8.7814  8.5770 -0.0402  21.171 1.5283 1.6047 0.0187
  0.7191 0.1411  2.7993  2.4557  0.7622    1.85  0.2563 0.7366 1.6656  8.7814
0.7500  36.017 0.24488  8.8927  8.5937 -0.0407  21.609 1.5507 1.6282 0.0183
  0.7148 0.1441  2.7634  2.4181  0.7588    1.82  0.2550 0.7440 1.6724  8.8927
0.7450  36.756 0.24846  9.0049  8.6105 -0.0411  22.051 1.5733 1.6520 0.0180
  0.7106 0.1470  2.7284  2.3816  0.7554    1.79  0.2538 0.7516 1.6793  9.0049
0.7400  37.495 0.25207  9.1181  8.6273 -0.0415  22.496 1.5962 1.6760 0.0177
  0.7064 0.1500  2.6944  2.3460  0.7519    1.76  0.2526 0.7594 1.6863  9.1181
0.7350  38.235 0.25572  9.2322  8.6441 -0.0420  22.944 1.6193 1.7003 0.0173
  0.7023 0.1529  2.6612  2.3112  0.7483    1.73  0.2513 0.7672 1.6933  9.2322
0.7300  38.976 0.25941  9.3471  8.6610 -0.0424  23.396 1.6427 1.7248 0.0170
  0.6982 0.1559  2.6289  2.2773  0.7447    1.71  0.2501 0.7752 1.7005  9.3471
0.7250  39.717 0.26314  9.4629  8.6779 -0.0428  23.851 1.6663 1.7496 0.0167
  0.6941 0.1589  2.5974  2.2442  0.7410    1.68  0.2488 0.7834 1.7077  9.4629
0.7200  40.460 0.26690  9.5796  8.6948 -0.0432  24.310 1.6901 1.7746 0.0164
  0.6900 0.1618  2.5667  2.2119  0.7373    1.66  0.2476 0.7917 1.7151  9.5796
0.7150  41.203 0.27070  9.6971  8.7117 -0.0437  24.773 1.7142 1.7999 0.0161
  0.6860 0.1648  2.5368  2.1802  0.7336    1.63  0.2464 0.8001 1.7225  9.6971
0.7100  41.947 0.27454  9.8154  8.7287 -0.0441  25.239 1.7384 1.8254 0.0158
  0.6819 0.1678  2.5076  2.1493  0.7298    1.61  0.2451 0.8086 1.7300  9.8154
0.7050  42.693 0.27841  9.9345  8.7457 -0.0445  25.710 1.7630 1.8511 0.0156
  0.6779 0.1708  2.4791  2.1190  0.7260    1.58  0.2439 0.8173 1.7376  9.9345
0.7000  43.439 0.28232 10.0543  8.7627 -0.0449  26.183 1.7877 1.8771 0.0153
  0.6739 0.1738  2.4512  2.0893  0.7222    1.56  0.2427 0.8261 1.7452 10.0543
0.6950  44.186 0.28626 10.1750  8.7797 -0.0453  26.661 1.8127 1.9033 0.0150
  0.6700 0.1767  2.4240  2.0602  0.7184    1.54  0.2415 0.8351 1.7530 10.1750
0.6900  44.934 0.29024 10.2964  8.7967 -0.0457  27.142 1.8379 1.9297 0.0148
  0.6660 0.1797  2.3974  2.0316  0.7145    1.51  0.2402 0.8442 1.7608 10.2964
0.6850  45.683 0.29425 10.4185  8.8138 -0.0461  27.628 1.8633 1.9564 0.0145
  0.6621 0.1827  2.3714  2.0036  0.7106    1.49  0.2390 0.8535 1.7687 10.4185
0.6800  46.433 0.29830 10.5413  8.8309 -0.0465  28.117 1.8889 1.9833 0.0143
  0.6582 0.1857  2.3460  1.9761  0.7066    1.47  0.2378 0.8629 1.7767 10.5413
0.6750  47.184 0.30238 10.6649  8.8480 -0.0469  28.610 1.9147 2.0105 0.0140
  0.6543 0.1887  2.3211  1.9491  0.7027    1.45  0.2366 0.8724 1.7847 10.6649
0.6700  47.937 0.30649 10.7891  8.8651 -0.0472  29.107 1.9408 2.0378 0.0138
  0.6505 0.1917  2.2968  1.9226  0.6987    1.43  0.2354 0.8821 1.7929 10.7891
0.6650  48.690 0.31064 10.9140  8.8823 -0.0476  29.607 1.9670 2.0654 0.0136
  0.6466 0.1948  2.2730  1.8965  0.6947    1.41  0.2341 0.8919 1.8011 10.9140
0.6600  49.445 0.31482 11.0395  8.8994 -0.0480  30.112 1.9935 2.0932 0.0134
  0.6428 0.1978  2.2497  1.8708  0.6906    1.39  0.2329 0.9019 1.8094 11.0395
0.6550  50.200 0.31903 11.1658  8.9166 -0.0484  30.621 2.0202 2.1212 0.0132
  0.6390 0.2008  2.2269  1.8456  0.6866    1.37  0.2317 0.9120 1.8178 11.1658
0.6500  50.957 0.32328 11.2926  8.9338 -0.0487  31.133 2.0471 2.1494 0.0130
  0.6352 0.2038  2.2045  1.8208  0.6825    1.35  0.2305 0.9223 1.8263 11.2926
0.6450  51.715 0.32756 11.4201  8.9510 -0.0491  31.650 2.0742 2.1779 0.0128
  0.6314 0.2069  2.1826  1.7963  0.6785    1.33  0.2293 0.9327 1.8348 11.4201
0.6400  52.475 0.33187 11.5481  8.9682 -0.0495  32.171 2.1015 2.2065 0.0126
  0.6276 0.2099  2.1611  1.7722  0.6744    1.31  0.2281 0.9433 1.8434 11.5481
0.6350  53.236 0.33621 11.6768  8.9854 -0.0498  32.695 2.1290 2.2354 0.0124
  0.6239 0.2129  2.1401  1.7485  0.6703    1.29  0.2268 0.9541 1.8521 11.6768
0.6300  53.998 0.34058 11.8060  9.0027 -0.0502  33.224 2.1567 2.2645 0.0122
  0.6202 0.2160  2.1194  1.7251  0.6662    1.28  0.2256 0.9650 1.8609 11.8060
0.6250  54.761 0.34499 11.9358  9.0199 -0.0506  33.756 2.1846 2.2938 0.0120
  0.6164 0.2190  2.0992  1.7021  0.6620    1.26  0.2244 0.9761 1.8698 11.9358
0.6200  55.526 0.34942 12.0662  9.0372 -0.0509  34.293 2.2126 2.3233 0.0119
  0.6127 0.2221  2.0794  1.6793  0.6579    1.24  0.2232 0.9874 1.8788 12.0662
0.6150  56.292 0.35389 12.1971  9.0545 -0.0513  34.833 2.2409 2.3530 0.0117
  0.6090 0.2252  2.0599  1.6569  0.6537    1.22  0.2220 0.9988 1.8878 12.1971
0.6100  57.060 0.35839 12.3286  9.0718 -0.0516  35.378 2.2694 2.3829 0.0115
  0.6053 0.2282  2.0408  1.6348  0.6496    1.21  0.2208 1.0105 1.8969 12.3286
0.6050  57.829 0.36292 12.4606  9.0891 -0.0520  35.926 2.2981 2.4130 0.0114
  0.6017 0.2313  2.0221  1.6129  0.6454    1.19  0.2196 1.0222 1.9062 12.4606
0.6000  58.600 0.36747 12.5931  9.1064 -0.0523  36.479 2.3269 2.4433 0.0112
  0.5980 0.2344  2.0037  1.5914  0.6412    1.18  0.2184 1.0342 1.9155 12.5931
0.5950  59.372 0.37206 12.7261  9.1237 -0.0526  37.035 2.3560 2.4738 0.0111
  0.5944 0.2375  1.9856  1.5701  0.6370    1.16  0.2172 1.0464 1.9249 12.7261
0.5900  60.146 0.37668 12.8596  9.1411 -0.0530  37.596 2.3852 2.5045 0.0109
  0.5907 0.2406  1.9678  1.5491  0.6328    1.14  0.2160 1.0588 1.9344 12.8596
0.5850  60.922 0.38132 12.9935  9.1584 -0.0533  38.160 2.4146 2.5354 0.0108
  0.5871 0.2437  1.9504  1.5283  0.6286    1.13  0.2148 1.0713 1.9440 12.9935
0.5800  61.699 0.38600 13.1280  9.1758 -0.0536  38.729 2.4442 2.5665 0.0106
  0.5835 0.2468  1.9333  1.5077  0.6244    1.11  0.2136 1.0841 1.9537 13.1280
0.5750  62.478 0.39070 13.2629  9.1931 -0.0540  39.302 2.4740 2.5977 0.0105
  0.5798 0.2499  1.9165  1.4874  0.6202    1.10  0.2124 1.0970 1.9635 13.2629
0.5700  63.258 0.39544 13.3982  9.2105 -0.0543  39.878 2.5040 2.6292 0.0104
  0.5762 0.2530  1.8999  1.4674  0.6159    1.08  0.2111 1.1102 1.9734 13.3982
0.5650  64.041 0.40020 13.5340  9.2279 -0.0546  40.459 2.5342 2.6609 0.0102
  0.5726 0.2562  1.8837  1.4475  0.6117    1.07  0.2099 1.1236 1.9833 13.5340
0.5600  64.825 0.40499 13.6702  9.2452 -0.0549  41.043 2.5645 2.6927 0.0101
  0.5691 0.2593  1.8677  1.4279  0.6074    1.05  0.2087 1.1372 1.9934 13.6702
0.5550  65.611 0.40980 13.8069  9.2626 -0.0552  41.632 2.5950 2.7247 0.0100
  0.5655 0.2624  1.8520  1.4085  0.6032    1.04  0.2075 1.1511 2.0037 13.8069
0.5500  66.399 0.41465 13.9439  9.2800 -0.0556  42.225 2.6257 2.7569 0.0099
  0.5619 0.2656  1.8366  1.3893  0.5989    1.03  0.2063 1.1651 2.0140 13.9439
0.5450  67.189 0.41952 14.0813  9.2974 -0.0559  42.821 2.6565 2.7893 0.0097
  0.5583 0.2688  1.8214  1.3703  0.5947    1.01  0.2051 1.1794 2.0244 14.0813
0.5400  67.981 0.42442 14.2192  9.3148 -0.0562  43.422 2.6875 2.8219 0.0096
  0.5548 0.2719  1.8065  1.3515  0.5904    1.00  0.2039 1.1940 2.0350 14.2192
0.5350  68.774 0.42935 14.3574  9.3322 -0.0565  44.026 2.7187 2.8547 0.0095
  0.5512 0.2751  1.7918  1.3328  0.5861    0.99  0.2027 1.2088 2.0456 14.3574
0.5300  69.570 0.43430 14.4960  9.3496 -0.0568  44.635 2.7501 2.8876 0.0094
  0.5477 0.2783  1.7774  1.3144  0.5818    0.97  0.2015 1.2239 2.0564 14.4960
0.5250  70.368 0.43928 14.6349  9.3670 -0.0571  45.247 2.7816 2.9207 0.0093
  0.5442 0.2815  1.7632  1.2961  0.5775    0.96  0.2003 1.2392 2.0673 14.6349
0.5200  71.169 0.44428 14.7742  9.3845 -0.0574  45.864 2.8133 2.9540 0.0092
  0.5406 0.2847  1.7492  1.2780  0.5732    0.95  0.1991 1.2548 2.0784 14.7742
0.5150  71.971 0.44931 14.9138  9.4019 -0.0577  46.484 2.8452 2.9874 0.0091
  0.5371 0.2879  1.7354  1.2601  0.5689    0.93  0.1979 1.2707 2.0895 14.9138
0.5100  72.776 0.45437 15.0537  9.4193 -0.0580  47.109 2.8772 3.0211 0.0090
  0.5336 0.2911  1.7219  1.2423  0.5646    0.92  0.1967 1.2868 2.1008 15.0537
0.5050  73.583 0.45945 15.1940  9.4367 -0.0583  47.737 2.9094 3.0548 0.0089
  0.5300 0.2943  1.7085  1.2247  0.5603    0.91  0.1955 1.3033 2.1123 15.1940
0.5000  74.392 0.46456 15.3346  9.4542 -0.0586  48.369 2.9417 3.0888 0.0089
  0.5265 0.2976  1.6954  1.2073  0.5559    0.90  0.1942 1.3201 2.1239 15.3346
0.4950  75.204 0.46969 15.4755  9.4716 -0.0588  49.005 2.9742 3.1229 0.0088
  0.5230 0.3008  1.6825  1.1900  0.5516    0.88  0.1930 1.3371 2.1356 15.4755
0.4900  76.018 0.47485 15.6167  9.4890 -0.0591  49.645 3.0069 3.1572 0.0087
  0.5195 0.3041  1.6698  1.1729  0.5473    0.87  0.1918 1.3545 2.1475 15.6167
0.4850  76.834 0.48003 15.7581  9.5064 -0.0594  50.288 3.0397 3.1917 0.0086
  0.5160 0.3073  1.6572  1.1559  0.5429    0.86  0.1906 1.3723 2.1595 15.7581
0.4800  77.654 0.48524 15.8999  9.5239 -0.0597  50.936 3.0726 3.2263 0.0085
  0.5125 0.3106  1.6449  1.1391  0.5386    0.85  0.1894 1.3903 2.1717 15.8999
0.4750  78.476 0.49047 16.0419  9.5413 -0.0599  51.588 3.1058 3.2610 0.0085
  0.5090 0.3139  1.6327  1.1224  0.5343    0.84  0.1882 1.4088 2.1840 16.0419
0.4700  79.300 0.49572 16.1841  9.5587 -0.0602  52.243 3.1390 3.2960 0.0084
  0.5055 0.3172  1.6207  1.1058  0.5299    0.83  0.1869 1.4276 2.1965 16.1841
0.4650  80.127 0.50100 16.3266  9.5762 -0.0605  52.902 3.1724 3.3311 0.0083
  0.5020 0.3205  1.6089  1.0894  0.5255    0.82  0.1857 1.4467 2.2092 16.3266
0.4600  80.958 0.50630 16.4693  9.5936 -0.0607  53.565 3.2060 3.3663 0.0082
  0.4985 0.3238  1.5973  1.0731  0.5212    0.80  0.1845 1.4663 2.2221 16.4693
0.4550  81.791 0.51162 16.6123  9.6110 -0.0610  54.231 3.2397 3.4017 0.0082
  0.4950 0.3272  1.5859  1.0569  0.5168    0.79  0.1833 1.4863 2.2351 16.6123
0.4500  82.627 0.51696 16.7555  9.6284 -0.0613  54.902 3.2735 3.4372 0.0081
  0.4915 0.3305  1.5746  1.0409  0.5124    0.78  0.1821 1.5066 2.2484 16.7555
0.4450  83.465 0.52233 16.8989  9.6459 -0.0615  55.576 3.3075 3.4729 0.0080
  0.4880 0.3339  1.5634  1.0250  0.5080    0.77  0.1808 1.5274 2.2618 16.8989
0.4400  84.307 0.52772 17.0425  9.6633 -0.0618  56.254 3.3417 3.5087 0.0080
  0.4845 0.3372  1.5525  1.0092  0.5036    0.76  0.1796 1.5487 2.2754 17.0425
0.4350  85.153 0.53313 17.1863  9.6807 -0.0620  56.935 3.3759 3.5447 0.0079
  0.4810 0.3406  1.5417  0.9935  0.4993    0.75  0.1784 1.5704 2.2892 17.1863
0.4300  86.001 0.53856 17.3302  9.6981 -0.0622  57.621 3.4103 3.5808 0.0079
  0.4775 0.3440  1.5310  0.9779  0.4949    0.74  0.1771 1.5925 2.3033 17.3302
0.4250  86.853 0.54402 17.4744  9.7155 -0.0625  58.309 3.4449 3.6171 0.0078
  0.4740 0.3474  1.5205  0.9625  0.4904    0.73  0.1759 1.6152 2.3175 17.4744
0.4200  87.708 0.54949 17.6187  9.7329 -0.0627  59.002 3.4795 3.6535 0.0078
  0.4705 0.3508  1.5102  0.9472  0.4860    0.72  0.1747 1.6384 2.3320 17.6187
0.4150  88.566 0.55499 17.7631  9.7503 -0.0630  59.698 3.5143 3.6900 0.0077
  0.4670 0.3543  1.5000  0.9319  0.4816    0.71  0.1734 1.6621 2.3467 17.7631
0.4100  89.428 0.56050 17.9077  9.7677 -0.0632  60.398 3.5493 3.7267 0.0077
  0.4635 0.3577  1.4899  0.9168  0.4772    0.70  0.1722 1.6863 2.3616 17.9077
0.4050  90.294 0.56604 18.0524  9.7851 -0.0634  61.101 3.5843 3.7635 0.0076
  0.4600 0.3612  1.4800  0.9018  0.4728    0.69  0.1709 1.7111 2.3768 18.0524
0.4000  91.163 0.57159 18.1973  9.8024 -0.0636  61.808 3.6195 3.8005 0.0076
  0.4565 0.3647  1.4702  0.8869  0.4683    0.68  0.1697 1.7365 2.3923 18.1973
0.3950  92.036 0.57717 18.3423  9.8198 -0.0639  62.518 3.6548 3.8375 0.0075
  0.4530 0.3681  1.4605  0.8721  0.4639    0.67  0.1684 1.7625 2.4080 18.3423
0.3900  92.913 0.58276 18.4873  9.8372 -0.0641  63.232 3.6902 3.8747 0.0075
  0.4494 0.3717  1.4510  0.8575  0.4594    0.66  0.1672 1.7891 2.4240 18.4873
0.3850  93.794 0.58837 18.6325  9.8545 -0.0643  63.949 3.7257 3.9120 0.0075
  0.4459 0.3752  1.4416  0.8429  0.4550    0.65  0.1659 1.8164 2.4402 18.6325
0.3800  94.679 0.59401 18.7778  9.8719 -0.0645  64.670 3.7614 3.9495 0.0074
  0.4424 0.3787  1.4323  0.8284  0.4505    0.64  0.1646 1.8444 2.4568 18.7778
0.3750  95.568 0.59965 18.9231  9.8892 -0.0647  65.394 3.7972 3.9870 0.0074
  0.4388 0.3823  1.4232  0.8140  0.4460    0.64  0.1634 1.8731 2.4737 18.9231
0.3700  96.462 0.60532 19.0685  9.9066 -0.0649  66.121 3.8331 4.0247 0.0074
  0.4353 0.3858  1.4142  0.7997  0.4415    0.63  0.1621 1.9025 2.4908 19.0685
0.3650  97.360 0.61101 19.2139  9.9239 -0.0651  66.852 3.8690 4.0625 0.0073
  0.4317 0.3894  1.4053  0.7855  0.4370    0.62  0.1608 1.9327 2.5083 19.2139
0.3600  98.262 0.61671 19.3595  9.9412 -0.0653  67.586 3.9051 4.1004 0.0073
  0.4282 0.3930  1.3965  0.7713  0.4326    0.61  0.1596 1.9637 2.5262 19.3595
0.3550  99.169 0.62242 19.5050  9.9585 -0.0655  68.324 3.9413 4.1384 0.0073
  0.4246 0.3967  1.3879  0.7573  0.4280    0.60  0.1583 1.9955 2.5443 19.5050
0.3500 100.081 0.62816 19.6506  9.9758 -0.0657  69.064 3.9777 4.1765 0.0073
  0.4211 0.4003  1.3793  0.7434  0.4235    0.59  0.1570 2.0282 2.5629 19.6506
0.3450 100.998 0.63391 19.7961  9.9931 -0.0658  69.808 4.0141 4.2148 0.0072
  0.4175 0.4040  1.3709  0.7296  0.4190    0.58  0.1557 2.0619 2.5818 19.7961
0.3400 101.919 0.63967 19.9417 10.0103 -0.0660  70.555 4.0506 4.2531 0.0072
  0.4139 0.4077  1.3626  0.7158  0.4145    0.57  0.1544 2.0964 2.6011 19.9417
0.3350 102.846 0.64545 20.0873 10.0276 -0.0662  71.305 4.0872 4.2915 0.0072
  0.4103 0.4114  1.3544  0.7021  0.4099    0.56  0.1531 2.1320 2.6208 20.0873
0.3300 103.778 0.65125 20.2329 10.0448 -0.0664  72.058 4.1239 4.3301 0.0072
  0.4067 0.4151  1.3463  0.6885  0.4054    0.56  0.1518 2.1686 2.6409 20.2329
0.3250 104.716 0.65706 20.3784 10.0621 -0.0665  72.814 4.1607 4.3687 0.0072
  0.4031 0.4189  1.3383  0.6750  0.4008    0.55  0.1505 2.2062 2.6615 20.3784
0.3200 105.659 0.66288 20.5239 10.0793 -0.0667  73.573 4.1975 4.4074 0.0072
  0.3994 0.4226  1.3304  0.6616  0.3962    0.54  0.1492 2.2451 2.6825 20.5239
0.3150 106.608 0.66872 20.6694 10.0965 -0.0668  74.335 4.2345 4.4462 0.0072
  0.3958 0.4264  1.3226  0.6483  0.3917    0.53  0.1478 2.2851 2.7040 20.6694
0.3100 107.562 0.67457 20.8148 10.1137 -0.0670  75.100 4.2716 4.4851 0.0071
  0.3921 0.4302  1.3149  0.6351  0.3871    0.52  0.1465 2.3263 2.7260 20.8148
0.3050 108.523 0.68043 20.9601 10.1309 -0.0671  75.868 4.3087 4.5241 0.0071
  0.3885 0.4341  1.3074  0.6219  0.3825    0.51  0.1452 2.3689 2.7485 20.9601
0.3000 109.490 0.68631 21.1053 10.1480 -0.0673  76.638 4.3459 4.5632 0.0071
  0.3848 0.4380  1.2999  0.6088  0.3778    0.51  0.1438 2.4128 2.7715 21.1053
0.2950 110.464 0.69220 21.2505 10.1652 -0.0674  77.411 4.3832 4.6023 0.0071
  0.3811 0.4419  1.2925  0.5958  0.3732    0.50  0.1425 2.4582 2.7951 21.2505
0.2900 111.444 0.69810 21.3955 10.1823 -0.0675  78.187 4.4205 4.6415 0.0071
  0.3774 0.4458  1.2852  0.5829  0.3686    0.49  0.1411 2.5051 2.8192 21.3955
0.2850 112.430 0.70400 21.5404 10.1994 -0.0676  78.966 4.4579 4.6808 0.0071
  0.3737 0.4497  1.2780  0.5700  0.3639    0.48  0.1398 2.5536 2.8440 21.5404
0.2800 113.424 0.70992 21.6852 10.2165 -0.0678  79.747 4.4954 4.7202 0.0072
  0.3699 0.4537  1.2709  0.5572  0.3592    0.47  0.1384 2.6038 2.8694 21.6852
0.2750 114.425 0.71585 21.8299 10.2336 -0.0679  80.530 4.5330 4.7596 0.0072
  0.3662 0.4577  1.2639  0.5445  0.3545    0.47  0.1370 2.6558 2.8955 21.8299
0.2700 115.434 0.72179 21.9744 10.2506 -0.0680  81.316 4.5706 4.7991 0.0072
  0.3624 0.4617  1.2570  0.5319  0.3498    0.46  0.1357 2.7097 2.9223 21.9744
0.2650 116.450 0.72774 22.1187 10.2676 -0.0681  82.104 4.6082 4.8387 0.0072
  0.3586 0.4658  1.2502  0.5194  0.3451    0.45  0.1343 2.7655 2.9498 22.1187
0.2600 117.474 0.73370 22.2628 10.2846 -0.0682  82.895 4.6460 4.8783 0.0072
  0.3548 0.4699  1.2435  0.5069  0.3404    0.44  0.1329 2.8235 2.9781 22.2628
0.2550 118.507 0.73966 22.4067 10.3016 -0.0682  83.688 4.6837 4.9179 0.0072
  0.3509 0.4740  1.2368  0.4945  0.3356    0.43  0.1315 2.8837 3.0072 22.4067
0.2500 119.547 0.74563 22.5505 10.3186 -0.0683  84.482 4.7215 4.9576 0.0072
  0.3471 0.4782  1.2303  0.4822  0.3309    0.43  0.1300 2.9462 3.0371 22.5505
0.2450 120.597 0.75161 22.6940 10.3355 -0.0684  85.279 4.7594 4.9973 0.0073
  0.3432 0.4824  1.2238  0.4699  0.3261    0.42  0.1286 3.0113 3.0680 22.6940
0.2400 121.656 0.75759 22.8372 10.3525 -0.0685  86.078 4.7973 5.0371 0.0073
  0.3393 0.4866  1.2174  0.4578  0.3213    0.41  0.1272 3.0790 3.0997 22.8372
0.2350 122.724 0.76358 22.9802 10.3694 -0.0685  86.879 4.8352 5.0769 0.0073
  0.3354 0.4909  1.2111  0.4457  0.3165    0.40  0.1257 3.1495 3.1325 22.9802
0.2300 123.802 0.76957 23.1230 10.3862 -0.0686  87.681 4.8731 5.1168 0.0074
  0.3314 0.4952  1.2049  0.4336  0.3116    0.40  0.1243 3.2231 3.1663 23.1230
0.2250 124.890 0.77557 23.2654 10.4031 -0.0686  88.485 4.9111 5.1566 0.0074
  0.3274 0.4996  1.1988  0.4217  0.3068    0.39  0.1228 3.2999 3.2012 23.2654
0.2200 125.988 0.78157 23.4075 10.4199 -0.0686  89.291 4.9491 5.1965 0.0074
  0.3234 0.5040  1.1927  0.4098  0.3019    0.38  0.1213 3.3801 3.2373 23.4075
0.2150 127.098 0.78757 23.5493 10.4367 -0.0687  90.098 4.9871 5.2364 0.0075
  0.3194 0.5084  1.1868  0.3980  0.2970    0.37  0.1198 3.4641 3.2746 23.5493
0.2100 128.218 0.79357 23.6908 10.4535 -0.0687  90.907 5.0251 5.2764 0.0075
  0.3153 0.5129  1.1809  0.3862  0.2920    0.37  0.1183 3.5519 3.3132 23.6908
0.2050 129.351 0.79958 23.8319 10.4702 -0.0687  91.716 5.0631 5.3163 0.0076
  0.3112 0.5174  1.1751  0.3746  0.2871    0.36  0.1168 3.6440 3.3532 23.8319
0.2000 130.496 0.80558 23.9727 10.4869 -0.0687  92.527 5.1012 5.3562 0.0077
  0.3071 0.5220  1.1693  0.3630  0.2821    0.35  0.1153 3.7407 3.3946 23.9727
0.1950 131.653 0.81159 24.1130 10.5036 -0.0687  93.338 5.1392 5.3961 0.0077
  0.3029 0.5266  1.1637  0.3514  0.2771    0.35  0.1137 3.8423 3.4377 24.1130
0.1900 132.823 0.81759 24.2530 10.5202 -0.0686  94.151 5.1772 5.4361 0.0078
  0.2987 0.5313  1.1581  0.3400  0.2720    0.34  0.1122 3.9492 3.4824 24.2530
0.1850 134.008 0.82359 24.3925 10.5368 -0.0686  94.964 5.2152 5.4760 0.0079
  0.2944 0.5360  1.1527  0.3286  0.2670    0.33  0.1106 4.0618 3.5289 24.3925
0.1800 135.207 0.82959 24.5315 10.5534 -0.0686  95.777 5.2532 5.5158 0.0080
  0.2901 0.5408  1.1473  0.3173  0.2619    0.32  0.1090 4.1806 3.5774 24.5315
0.1750 136.421 0.83558 24.6701 10.5699 -0.0685  96.590 5.2911 5.5557 0.0080
  0.2858 0.5457  1.1419  0.3061  0.2567    0.32  0.1074 4.3061 3.6278 24.6701
0.1700 137.651 0.84157 24.8081 10.5864 -0.0684  97.404 5.3290 5.5955 0.0081
  0.2814 0.5506  1.1367  0.2949  0.2516    0.31  0.1057 4.4390 3.6805 24.8081
0.1650 138.897 0.84755 24.9457 10.6029 -0.0684  98.218 5.3669 5.6353 0.0082
  0.2770 0.5556  1.1315  0.2838  0.2464    0.30  0.1041 4.5800 3.7356 24.9457
0.1600 140.161 0.85352 25.0826 10.6193 -0.0683  99.031 5.4047 5.6750 0.0083
  0.2725 0.5606  1.1264  0.2728  0.2411    0.29  0.1024 4.7296 3.7932 25.0826
0.1550 141.443 0.85949 25.2190 10.6357 -0.0682  99.843 5.4425 5.7146 0.0085
  0.2679 0.5658  1.1214  0.2619  0.2359    0.29  0.1007 4.8889 3.8536 25.2190
0.1500 142.744 0.86544 25.3548 10.6520 -0.0680 100.655 5.4802 5.7542 0.0086
  0.2633 0.5710  1.1165  0.2510  0.2305    0.28  0.0990 5.0588 3.9170 25.3548
0.1450 144.066 0.87139 25.4900 10.6683 -0.0679 101.465 5.5178 5.7937 0.0087
  0.2587 0.5763  1.1116  0.2402  0.2252    0.27  0.0973 5.2404 3.9836 25.4900
0.1400 145.409 0.87732 25.6245 10.6845 -0.0677 102.275 5.5554 5.8332 0.0089
  0.2540 0.5816  1.1069  0.2295  0.2198    0.26  0.0955 5.4349 4.0538 25.6245
0.1350 146.774 0.88323 25.7582 10.7007 -0.0676 103.082 5.5929 5.8725 0.0090
  0.2492 0.5871  1.1022  0.2188  0.2143    0.26  0.0937 5.6438 4.1278 25.7582
0.1300 148.164 0.88913 25.8913 10.7168 -0.0674 103.887 5.6302 5.9117 0.0092
  0.2443 0.5927  1.0976  0.2083  0.2088    0.25  0.0919 5.8688 4.2061 25.8913
0.1250 149.579 0.89502 26.0236 10.7329 -0.0672 104.690 5.6675 5.9509 0.0094
  0.2394 0.5983  1.0931  0.1978  0.2032    0.24  0.0901 6.1118 4.2891 26.0236
0.1200 151.021 0.90088 26.1550 10.7490 -0.0670 105.489 5.7046 5.9899 0.0096
  0.2343 0.6041  1.0886  0.1874  0.1976    0.24  0.0882 6.3750 4.3772 26.1550
0.1150 152.491 0.90673 26.2856 10.7649 -0.0667 106.286 5.7416 6.0287 0.0098
  0.2292 0.6100  1.0843  0.1771  0.1919    0.23  0.0863 6.6611 4.4710 26.2856
0.1100 153.993 0.91255 26.4153 10.7808 -0.0664 107.078 5.7785 6.0674 0.0101
  0.2240 0.6160  1.0800  0.1669  0.1862    0.22  0.0843 6.9733 4.5712 26.4153
0.1050 155.528 0.91834 26.5441 10.7967 -0.0661 107.866 5.8152 6.1060 0.0104
  0.2187 0.6221  1.0759  0.1568  0.1803    0.21  0.0823 7.3152 4.6785 26.5441
0.1000 157.098 0.92411 26.6719 10.8125 -0.0658 108.648 5.8517 6.1443 0.0107
  0.2133 0.6284  1.0718  0.1467  0.1744    0.21  0.0803 7.6914 4.7938 26.6719
0.0950 158.707 0.92985 26.7986 10.8282 -0.0655 109.425 5.8881 6.1825 0.0110
  0.2077 0.6348  1.0678  0.1368  0.1684    0.20  0.0782 8.1073 4.9182 26.7986
0.0900 160.357 0.93556 26.9242 10.8438 -0.0651 110.195 5.9242 6.2204 0.0114
  0.2020 0.6414  1.0639  0.1269  0.1624    0.19  0.0761 8.5696 5.0528 26.9242
0.0850 162.053 0.94123 27.0486 10.8594 -0.0646 110.957 5.9601 6.2581 0.0118
  0.1962 0.6482  1.0601  0.1172  0.1562    0.18  0.0739 9.0864 5.1992 27.0486
0.0800 163.798 0.94686 27.1718 10.8748 -0.0642 111.711 5.9958 6.2956 0.0122
  0.1902 0.6552  1.0565  0.1075  0.1499    0.17  0.0716 9.6681 5.3592 27.1718
0.0750 165.597 0.95245 27.2936 10.8902 -0.0637 112.454 6.0312 6.3327 0.0127
  0.1841 0.6624  1.0529  0.0980  0.1435    0.17  0.069310.3277 5.5351 27.2936
0.0700 167.456 0.95800 27.4140 10.9055 -0.0631 113.186 6.0663 6.3696 0.0133
  0.1777 0.6698  1.0495  0.0886  0.1370    0.16  0.066911.0819 5.7296 27.4140
0.0650 169.382 0.96349 27.5329 10.9207 -0.0625 113.905 6.1011 6.4061 0.0140
  0.1712 0.6775  1.0462  0.0793  0.1303    0.15  0.064511.9527 5.9463 27.5329
0.0600 171.383 0.96893 27.6502 10.9358 -0.0619 114.608 6.1355 6.4423 0.0147
  0.1644 0.6855  1.0431  0.0702  0.1235    0.14  0.061912.9693 6.1898 27.6502
0.0550 173.469 0.97431 27.7656 10.9507 -0.0611 115.294 6.1696 6.4781 0.0156
  0.1573 0.6939  1.0401  0.0612  0.1165    0.13  0.059314.1718 6.4660 27.7656
0.0500 175.652 0.97962 27.8792 10.9655 -0.0603 115.959 6.2032 6.5134 0.0167
  0.1499 0.7026  1.0372  0.0523  0.1093    0.13  0.056515.6162 6.7829 27.8792
0.0450 177.946 0.98485 27.9907 10.9802 -0.0594 116.599 6.2364 6.5482 0.0179
  0.1422 0.7118  1.0346  0.0437  0.1019    0.12  0.053617.3834 7.1516 27.9907
0.0400 180.372 0.99000 28.0999 10.9948 -0.0584 117.209 6.2690 6.5824 0.0195
  0.1340 0.7215  1.0322  0.0353  0.0942    0.11  0.050519.5951 7.5879 28.0999
0.0350 182.956 0.99506 28.2065 11.0091 -0.0572 117.783 6.3010 6.6160 0.0215
  0.1254 0.7318  1.0301  0.0271  0.0862    0.10  0.047222.4426 8.1153 28.2065
0.0300 185.734 1.00000 28.3103 11.0233 -0.0559 118.311 6.3323 6.6489 0.0240
  0.1161 0.7429  1.0282  0.0191  0.0778    0.09  0.043726.2456 8.7703 28.3103
0.0250 188.757 1.00482 28.4107 11.0372 -0.0543 118.781 6.3628 6.6809 0.0266
  0.1060 0.7550  1.0268  0.0116  0.0689    0.08  0.039931.5825 9.6142 28.4107
0.0200 192.105 1.00948 28.5073 11.0509 -0.0524 119.171 6.3923 6.7119 0.0351
  0.0948 0.7684  1.0259  0.0045  0.0595    0.07  0.035739.583610.7590 28.5073
0.0150 195.911 1.01396 28.5993 11.0642 -0.0500 119.447 6.4207 6.7417 0.0737
  0.0821 0.7836  1.0258 -0.0020  0.0492    0.06  0.030952.828712.4375 28.5993
0.0100 200.437 1.01820 28.6854 11.0771 -0.0467 119.538 6.4475 6.7699 0.3688
  0.0671 0.8017  1.0268 -0.0076  0.0376    0.04  0.025378.333915.2445 28.6854
0.0050 206.360 1.02208 28.7630 11.0893 -0.0416 119.259 6.4721 6.7957 1.6542
  0.0475 0.8254  1.0303 -0.0114  0.0238    0.03  0.0179*******21.5603 28.7630
0.0000 220.799 1.02519 28.8228 11.1000 -0.0106 116.414 6.4918 6.8164*******
  0.0000 0.8832  1.0479 -0.0000  0.0000   -0.00  0.0000************** 28.8228
 area=    352378.4203791969      javg(A/cm^2)=    42.56787392464315     
 Raxis=    809.2005082921228      Ravg=    780.0000000000000      a= 
    250.0000000000000      curtot=    15000000.17246656     
Ip_request= 15000000.  Ip= 15000000.  error= 0.00000
betaN_request=  2.5186  betaN=  2.5186  error= 0.00000
